Time_(sec),Volume_(cm3),Temperature_(K),Pressure_(bar)
        0.000000000000000,        399.1019000000000,        408.0000000000000,        1.988199000000000
    8.580681000000000E-05,        399.0976000000000,        408.0015000000000,        1.988229000000000
    0.0001757431000000000,        399.0841000000000,        408.0062000000000,        1.988320000000000
    0.0002651180000000000,        399.0615000000000,        408.0139000000000,        1.988472000000000
    0.0003566491000000000,        399.0288000000000,        408.0250000000000,        1.988690000000000
    0.0004459433000000000,        398.9876000000000,        408.0390000000000,        1.988965000000000
    0.0005349053000000000,        398.9374000000000,        408.0560000000000,        1.989299000000000
    0.0006261340000000000,        398.8765000000000,        408.0766000000000,        1.989704000000000
    0.0007156641000000000,        398.8075000000000,        408.1001000000000,        1.990164000000000
    0.0008045545000000000,        398.7298000000000,        408.1264000000000,        1.990681000000000
    0.0008946655000000000,        398.6418000000000,        408.1562000000000,        1.991267000000000
    0.0009832355000000000,        398.5462000000000,        408.1886000000000,        1.991904000000000
     0.001072138000000000,        398.4412000000000,        408.2242000000000,        1.992604000000000
     0.001100000000000000,        398.4064000000000,        408.2360000000000,        1.992836000000000
     0.001190842000000000,        398.2868000000000,        408.2766000000000,        1.993633000000000
     0.001280122000000000,        398.1600000000000,        408.3196000000000,        1.994479000000000
     0.001370431000000000,        398.0224000000000,        408.3662000000000,        1.995398000000000
     0.001459375000000000,        397.8778000000000,        408.4153000000000,        1.996364000000000
     0.001547548000000000,        397.7254000000000,        408.4671000000000,        1.997383000000000
     0.001636509000000000,        397.5626000000000,        408.5224000000000,        1.998473000000000
     0.001725233000000000,        397.3911000000000,        408.5807000000000,        1.999621000000000
     0.001813514000000000,        397.2116000000000,        408.6417000000000,        2.000826000000000
     0.001900495000000000,        397.0259000000000,        408.7049000000000,        2.002072000000000
     0.001989027000000000,        396.8280000000000,        408.7722000000000,        2.003401000000000
     0.002077204000000000,        396.6219000000000,        408.8424000000000,        2.004787000000000
     0.002164972000000000,        396.4079000000000,        408.9154000000000,        2.006229000000000
     0.002200000000000000,        396.3201000000000,        408.9453000000000,        2.006821000000000
     0.002289788000000000,        396.0884000000000,        409.0243000000000,        2.008384000000000
     0.002376832000000000,        395.8549000000000,        409.1040000000000,        2.009961000000000
     0.002464089000000000,        395.6121000000000,        409.1870000000000,        2.011603000000000
     0.002550151000000000,        395.3641000000000,        409.2718000000000,        2.013283000000000
     0.002635726000000000,        395.1090000000000,        409.3590000000000,        2.015014000000000
     0.002723681000000000,        394.8381000000000,        409.4518000000000,        2.016855000000000
     0.002810024000000000,        394.5635000000000,        409.5459000000000,        2.018724000000000
     0.002895571000000000,        394.2829000000000,        409.6421000000000,        2.020635000000000
     0.002981433000000000,        393.9929000000000,        409.7417000000000,        2.022616000000000
     0.003067124000000000,        393.6950000000000,        409.8441000000000,        2.024653000000000
     0.003152313000000000,        393.3905000000000,        409.9488000000000,        2.026739000000000
     0.003237280000000000,        393.0785000000000,        410.0562000000000,        2.028880000000000
     0.003300000000000000,        392.8428000000000,        410.1374000000000,        2.030501000000000
     0.003386893000000000,        392.5088000000000,        410.2526000000000,        2.032800000000000
     0.003471501000000000,        392.1753000000000,        410.3677000000000,        2.035100000000000
     0.003556313000000000,        391.8328000000000,        410.4861000000000,        2.037469000000000
     0.003640077000000000,        391.4863000000000,        410.6060000000000,        2.039868000000000
     0.003723512000000000,        391.1332000000000,        410.7283000000000,        2.042319000000000
     0.003807426000000000,        390.7700000000000,        410.8543000000000,        2.044846000000000
     0.003890128000000000,        390.4041000000000,        410.9813000000000,        2.047396000000000
     0.003973862000000000,        390.0256000000000,        411.1129000000000,        2.050040000000000
     0.004056093000000000,        389.6461000000000,        411.2450000000000,        2.052697000000000
     0.004138933000000000,        389.2559000000000,        411.3809000000000,        2.055435000000000
     0.004221452000000000,        388.8594000000000,        411.5192000000000,        2.058224000000000
     0.004302570000000000,        388.4620000000000,        411.6581000000000,        2.061026000000000
     0.004384160000000000,        388.0546000000000,        411.8006000000000,        2.063905000000000
     0.004400000000000000,        387.9746000000000,        411.8286000000000,        2.064471000000000
     0.004485206000000000,        387.5395000000000,        411.9810000000000,        2.067555000000000
     0.004565638000000000,        387.1211000000000,        412.1278000000000,        2.070528000000000
     0.004645827000000000,        386.6966000000000,        412.2770000000000,        2.073553000000000
     0.004725054000000000,        386.2698000000000,        412.4271000000000,        2.076600000000000
     0.004805336000000000,        385.8301000000000,        412.5820000000000,        2.079749000000000
     0.004885200000000000,        385.3853000000000,        412.7390000000000,        2.082943000000000
     0.004964448000000000,        384.9366000000000,        412.8975000000000,        2.086173000000000
     0.005044204000000000,        384.4779000000000,        413.0598000000000,        2.089485000000000
     0.005123058000000000,        384.0171000000000,        413.2231000000000,        2.092821000000000
     0.005202674000000000,        383.5446000000000,        413.3909000000000,        2.096251000000000
     0.005281363000000000,        383.0704000000000,        413.5594000000000,        2.099702000000000
     0.005359791000000000,        382.5907000000000,        413.7302000000000,        2.103204000000000
     0.005436646000000000,        382.1138000000000,        413.9002000000000,        2.106695000000000
     0.005500000000000000,        381.7156000000000,        414.0424000000000,        2.109619000000000
     0.005580333000000000,        381.2040000000000,        414.2254000000000,        2.113385000000000
     0.005656477000000000,        380.7122000000000,        414.4016000000000,        2.117016000000000
     0.005732526000000000,        380.2144000000000,        414.5802000000000,        2.120703000000000
     0.005809277000000000,        379.7053000000000,        414.7632000000000,        2.124485000000000
     0.005885466000000000,        379.1932000000000,        414.9476000000000,        2.128301000000000
     0.005967866000000000,        378.6318000000000,        415.1500000000000,        2.132497000000000
     0.006043958000000000,        378.1065000000000,        415.3398000000000,        2.136438000000000
     0.006119390000000000,        377.5791000000000,        415.5307000000000,        2.140405000000000
     0.006194131000000000,        377.0502000000000,        415.7225000000000,        2.144399000000000
     0.006268042000000000,        376.5208000000000,        415.9147000000000,        2.148408000000000
     0.006350097000000000,        375.9257000000000,        416.1313000000000,        2.152931000000000
     0.006424376000000000,        375.3803000000000,        416.3301000000000,        2.157090000000000
     0.006508016000000000,        374.7586000000000,        416.5572000000000,        2.161848000000000
     0.006591242000000000,        374.1320000000000,        416.7866000000000,        2.166663000000000
     0.006600000000000000,        374.0656000000000,        416.8110000000000,        2.167174000000000
     0.006682013000000000,        373.4396000000000,        417.0407000000000,        2.172005000000000
     0.006767999000000000,        372.7748000000000,        417.2851000000000,        2.177155000000000
     0.006848004000000000,        372.1487000000000,        417.5158000000000,        2.182025000000000
     0.006922696000000000,        371.5576000000000,        417.7341000000000,        2.186640000000000
     0.007001750000000000,        370.9249000000000,        417.9682000000000,        2.191598000000000
     0.007080998000000000,        370.2835000000000,        418.2061000000000,        2.196646000000000
     0.007151716000000000,        369.7050000000000,        418.4211000000000,        2.201214000000000
     0.007222019000000000,        369.1242000000000,        418.6373000000000,        2.205818000000000
     0.007299485000000000,        368.4776000000000,        418.8785000000000,        2.210963000000000
     0.007374066000000000,        367.8486000000000,        419.1138000000000,        2.215988000000000
     0.007443132000000000,        367.2604000000000,        419.3342000000000,        2.220706000000000
     0.007522105000000000,        366.5812000000000,        419.5893000000000,        2.226176000000000
     0.007603493000000000,        365.8736000000000,        419.8557000000000,        2.231899000000000
     0.007676461000000000,        365.2328000000000,        420.0975000000000,        2.237104000000000
     0.007700000000000000,        365.0248000000000,        420.1761000000000,        2.238798000000000
     0.007785536000000000,        364.2635000000000,        420.4642000000000,        2.245017000000000
     0.007861574000000000,        363.5796000000000,        420.7237000000000,        2.250629000000000
     0.007935457999999999,        362.9088000000000,        420.9788000000000,        2.256158000000000
     0.008005322000000000,        362.2687000000000,        421.2228000000000,        2.261455000000000
     0.008082321000000000,        361.5568000000000,        421.4948000000000,        2.267373000000000
     0.008155529999999999,        360.8735000000000,        421.7565000000000,        2.273077000000000
     0.008227659000000000,        360.1943000000000,        422.0172000000000,        2.278772000000000
     0.008300335000000001,        359.5039000000000,        422.2829000000000,        2.284587000000000
     0.008376214000000000,        358.7766000000000,        422.5635000000000,        2.290741000000000
     0.008453413000000000,        358.0299000000000,        422.8524000000000,        2.297090000000000
     0.008528400000000000,        357.2980000000000,        423.1362000000000,        2.303342000000000
     0.008596962999999999,        356.6232000000000,        423.3986000000000,        2.309133000000000
     0.008675504000000001,        355.8435000000000,        423.7025000000000,        2.315855000000000
     0.008754926999999999,        355.0478000000000,        424.0135000000000,        2.322751000000000
     0.008800000000000001,        354.5930000000000,        424.1917000000000,        2.326708000000000
     0.008876596000000000,        353.8148000000000,        424.4972000000000,        2.333506000000000
     0.008948698999999999,        353.0761000000000,        424.7880000000000,        2.339992000000000
     0.009019877000000001,        352.3410000000000,        425.0781000000000,        2.346477000000000
     0.009092505000000001,        351.5850000000000,        425.3773000000000,        2.353179000000000
     0.009165578000000001,        350.8181000000000,        425.6816000000000,        2.360012000000000
     0.009242327999999999,        350.0061000000000,        426.0047000000000,        2.367284000000000
     0.009314802000000000,        349.2331000000000,        426.3131000000000,        2.374243000000000
     0.009395400000000000,        348.3664000000000,        426.6601000000000,        2.382089000000000
     0.009467100000000001,        347.5891000000000,        426.9721000000000,        2.389164000000000
     0.009542821000000000,        346.7617000000000,        427.3052000000000,        2.396734000000000
     0.009616046000000000,        345.9554000000000,        427.6307000000000,        2.404152000000000
     0.009681066000000000,        345.2343000000000,        427.9227000000000,        2.410820000000000
     0.009755453000000001,        344.4033000000000,        428.2602000000000,        2.418544000000000
     0.009824164000000000,        343.6300000000000,        428.5751000000000,        2.425771000000000
     0.009895960000000001,        342.8163000000000,        428.9074000000000,        2.433416000000000
     0.009900000000000001,        342.7703000000000,        428.9262000000000,        2.433849000000000
     0.009971170000000000,        341.9575000000000,        429.2593000000000,        2.441530000000000
      0.01004765000000000,        341.0775000000000,        429.6210000000000,        2.449894000000000
      0.01011490000000000,        340.2982000000000,        429.9422000000000,        2.457342000000000
      0.01018339000000000,        339.4992000000000,        430.2726000000000,        2.465021000000000
      0.01025402000000000,        338.6695000000000,        430.6167000000000,        2.473038000000000
      0.01032476000000000,        337.8328000000000,        430.9648000000000,        2.481168000000000
      0.01039343000000000,        337.0151000000000,        431.3060000000000,        2.489160000000000
      0.01046170000000000,        336.1968000000000,        431.6485000000000,        2.497202000000000
      0.01052802000000000,        335.3968000000000,        431.9844000000000,        2.505108000000000
      0.01061054000000000,        334.3942000000000,        432.4067000000000,        2.515077000000000
      0.01067283000000000,        333.6322000000000,        432.7287000000000,        2.522700000000000
      0.01073233000000000,        332.9002000000000,        433.0390000000000,        2.530061000000000
      0.01079064000000000,        332.1789000000000,        433.3455000000000,        2.537352000000000
      0.01085831000000000,        331.3369000000000,        433.7044000000000,        2.545907000000000
      0.01100000000000000,        329.5568000000000,        434.4668000000000,        2.564161000000000
      0.01118963000000000,        327.1383000000000,        435.5109000000000,        2.589324000000000
      0.01138201000000000,        324.6425000000000,        436.5986000000000,        2.615746000000000
      0.01169018000000000,        320.5559000000000,        438.4025000000000,        2.660038000000000
      0.01197013000000000,        316.7489000000000,        440.1092000000000,        2.702490000000000
      0.01210000000000000,        314.9523000000000,        440.9235000000000,        2.722934000000000
      0.01237922000000000,        311.0238000000000,        442.7245000000000,        2.768588000000000
      0.01271432000000000,        306.1908000000000,        444.9799000000000,        2.826614000000000
      0.01297914000000000,        302.2801000000000,        446.8379000000000,        2.875142000000000
      0.01320000000000000,        298.9799000000000,        448.4293000000000,        2.917229000000000
      0.01421109000000000,        283.8706000000000,        456.0071000000000,        3.124427000000000
      0.01430000000000000,        282.5420000000000,        456.6976000000000,        3.143874000000000
      0.01540000000000000,        266.1040000000000,        465.5905000000000,        3.403089000000000
      0.01650000000000000,        249.6661000000000,        475.1968000000000,        3.701988000000000
      0.01760000000000000,        233.2282000000000,        485.6253000000000,        4.049875000000000
      0.01828549000000000,        222.9845000000000,        492.5979000000000,        4.296743000000000
      0.01870000000000000,        216.7902000000000,        497.0103000000000,        4.459100000000000
      0.01960110000000000,        203.3246000000000,        507.1660000000000,        4.851563000000000
      0.01980000000000000,        200.3523000000000,        509.5202000000000,        4.946392000000000
      0.02033511000000000,        192.3558000000000,        516.0749000000000,        5.218297000000000
      0.02090000000000000,        183.9144000000000,        523.3704000000000,        5.534969000000000
      0.02186187000000000,        169.5406000000000,        536.7972000000000,        6.158257000000000
      0.02200000000000000,        167.4764000000000,        538.8405000000000,        6.257889000000000
      0.02310000000000000,        151.0385000000000,        556.3033000000000,        7.163806000000000
      0.02405778000000000,        136.7258000000000,        573.5266000000000,        8.158742000000000
      0.02420000000000000,        134.6006000000000,        576.2720000000000,        8.327233000000000
      0.02456047000000000,        129.2138000000000,        583.4754000000000,        8.782817000000000
      0.02489306000000000,        124.2438000000000,        590.4549000000000,        9.243415000000001
      0.02530000000000000,        118.1626000000000,        599.4732000000000,        9.867566999999999
      0.02593002000000000,        108.7480000000000,        614.6133000000000,        10.99262000000000
      0.02631093000000000,        103.0557000000000,        624.5630000000000,        11.78758000000000
      0.02640000000000000,        101.7247000000000,        626.9861000000000,        11.98814000000000
      0.02673093000000000,        96.77949000000000,        636.3379000000000,        12.78867000000000
      0.02724471000000000,        89.10172000000000,        652.0676999999999,        14.23400000000000
      0.02750000000000000,        85.28677000000000,        660.5065000000000,        15.06316000000000
      0.02772831000000000,        81.87641000000001,        668.4455000000000,        15.87915000000000
      0.02774882000000000,        81.57266000000000,        669.1719000000001,        15.95560000000000
      0.02777113000000000,        81.24390000000000,        669.9619000000000,        16.03908000000000
      0.02779320000000000,        80.92040000000000,        670.7429000000000,        16.12197000000000
      0.02781389000000000,        80.61870000000000,        671.4748000000000,        16.19997000000000
      0.02783853000000000,        80.26130000000001,        672.3460000000000,        16.29322000000000
      0.02786256000000000,        79.91481000000000,        673.1951000000000,        16.38454000000000
      0.02788668000000000,        79.56892999999999,        674.0472000000000,        16.47659000000000
      0.02791117000000000,        79.21991000000000,        674.9115000000000,        16.57040000000000
      0.02793464000000000,        78.88742000000001,        675.7392000000000,        16.66066000000000
      0.02795886000000000,        78.54619000000000,        676.5930000000000,        16.75419000000000
      0.02797984000000000,        78.25228000000000,        677.3321000000000,        16.83549000000000
      0.02800423000000000,        77.91269000000000,        678.1901000000000,        16.93029000000000
      0.02802322000000000,        77.64964999999999,        678.8578000000000,        17.00437000000000
      0.02804706000000000,        77.32102000000000,        679.6959000000001,        17.09773000000000
      0.02806860000000000,        77.02596000000000,        680.4520000000000,        17.18232000000000
      0.02808824000000000,        76.75830000000001,        681.1410000000000,        17.25970000000000
      0.02810840000000000,        76.48499000000000,        681.8475000000000,        17.33935000000000
      0.02813069000000000,        76.18434000000001,        682.6281000000000,        17.42771000000000
      0.02815084000000000,        75.91412000000000,        683.3329000000000,        17.50781000000000
      0.02817675000000000,        75.56870000000001,        684.2383000000000,        17.61114000000000
      0.02819898000000000,        75.27417000000000,        685.0142000000000,        17.70010000000000
      0.02822978000000000,        74.86896000000000,        686.0877000000000,        17.82379000000000
      0.02825877000000000,        74.49051000000000,        687.0968000000000,        17.94071000000000
      0.02828367000000000,        74.16794000000000,        687.9616000000000,        18.04142000000000
      0.02831093000000000,        73.81722000000001,        688.9072000000000,        18.15206000000000
      0.02834046000000000,        73.44013000000000,        689.9297000000000,        18.27234000000000
      0.02836444000000000,        73.13609000000000,        690.7589000000000,        18.37037000000000
      0.02838889000000000,        72.82827000000000,        691.6026000000001,        18.47055000000000
      0.02841120000000000,        72.54913999999999,        692.3713000000000,        18.56223000000000
      0.02843343000000000,        72.27276000000001,        693.1360000000000,        18.65379000000000
      0.02845668000000000,        71.98548000000000,        693.9346000000000,        18.74982000000000
      0.02848069000000000,        71.69082000000000,        694.7576000000000,        18.84921000000000
      0.02850363000000000,        71.41115000000001,        695.5426000000000,        18.94441000000000
      0.02853028000000000,        71.08855000000000,        696.4527000000000,        19.05529000000000
      0.02855239000000000,        70.82288000000000,        697.2060000000000,        19.14746000000000
      0.02858072000000000,        70.48484999999999,        698.1693000000000,        19.26587000000000
      0.02860000000000000,        70.25633999999999,        698.8237000000000,        19.34665000000000
      0.02862808000000000,        69.92598000000000,        699.7742000000000,        19.46450000000000
      0.02864733000000000,        69.70101000000000,        700.4247000000000,        19.54548000000000
      0.02867214000000000,        69.41303000000001,        701.2610000000000,        19.65001000000000
      0.02869683000000000,        69.12846000000000,        702.0915000000000,        19.75427000000000
      0.02872131000000000,        68.84849000000000,        702.9126000000000,        19.85780000000000
      0.02874390000000000,        68.59207000000001,        703.6681000000000,        19.95347000000000
      0.02876875000000000,        68.31185000000001,        704.4977000000000,        20.05895000000000
      0.02879475000000000,        68.02119000000000,        705.3626000000000,        20.16941000000000
      0.02881989000000000,        67.74214000000001,        706.1970000000000,        20.27646000000000
      0.02884386000000000,        67.47830000000000,        706.9897999999999,        20.37859000000000
      0.02887008000000000,        67.19190999999999,        707.8546000000000,        20.49050000000000
      0.02889771000000000,        66.89261999999999,        708.7630000000000,        20.60860000000000
      0.02892281000000000,        66.62316000000000,        709.5852000000000,        20.71597000000000
      0.02894922000000000,        66.34191000000000,        710.4474000000000,        20.82907000000000
      0.02897558000000000,        66.06368000000001,        711.3048000000000,        20.94205000000000
      0.02900145000000000,        65.79293000000000,        712.1434000000000,        21.05303000000000
      0.02902912000000000,        65.50588999999999,        713.0368999999999,        21.17182000000000
      0.02905480000000000,        65.24194000000000,        713.8627000000000,        21.28210000000000
      0.02908252000000000,        64.95958000000000,        714.7505000000000,        21.40120000000000
      0.02910949000000000,        64.68728000000000,        715.6111000000000,        21.51717000000000
      0.02912985000000000,        64.48349000000000,        716.2581000000000,        21.60470000000000
      0.02915367000000000,        64.24692000000000,        717.0121000000000,        21.70708000000000
      0.02917385000000000,        64.04808000000000,        717.6485000000000,        21.79381000000000
      0.02919958000000000,        63.79644000000000,        718.4571000000000,        21.90443000000000
      0.02922405000000000,        63.55939000000000,        719.2226000000001,        22.00956000000000
      0.02924501000000000,        63.35791000000000,        719.8758000000000,        22.09961000000000
      0.02927136000000000,        63.10689000000000,        720.6931000000000,        22.21270000000000
      0.02929494000000000,        62.88425000000000,        721.4212000000000,        22.31388000000000
      0.02931890000000000,        62.65994000000000,        722.1580000000000,        22.41663000000000
      0.02934413000000000,        62.42604000000000,        722.9297000000000,        22.52468000000000
      0.02936620000000000,        62.22312000000000,        723.6020000000000,        22.61917000000000
      0.02939068000000000,        62.00013000000000,        724.3438000000000,        22.72380000000000
      0.02941431000000000,        61.78678000000000,        725.0567000000000,        22.82473000000000
      0.02943954000000000,        61.56117000000000,        725.8136000000000,        22.93230000000000
      0.02946593000000000,        61.32762000000000,        726.6007000000000,        23.04461000000000
      0.02949103000000000,        61.10762000000000,        727.3453000000000,        23.15128000000000
      0.02951838000000000,        60.87043000000000,        728.1517000000000,        23.26727000000000
      0.02954440000000000,        60.64725000000000,        728.9139000000000,        23.37734000000000
      0.02957065000000000,        60.42441000000000,        729.6784000000000,        23.48818000000000
      0.02959801000000000,        60.19469000000000,        730.4701000000000,        23.60342000000000
      0.02962064000000000,        60.00667000000000,        731.1208000000000,        23.69848000000000
      0.02964783000000000,        59.78318000000000,        731.8973999999999,        23.81236000000000
      0.02967338000000000,        59.57548000000000,        732.6223000000000,        23.91906000000000
      0.02970000000000000,        59.36142000000000,        733.3726000000000,        24.02993000000000
      0.02972648000000000,        59.15102000000000,        734.1133000000000,        24.13979000000000
      0.02975284000000000,        58.94397000000000,        734.8452000000000,        24.24875000000000
      0.02978108000000000,        58.72479000000000,        735.6232000000000,        24.36504000000000
      0.02980890000000000,        58.51161000000000,        736.3833000000000,        24.47909000000000
      0.02983170000000000,        58.33890000000000,        737.0016000000001,        24.57218000000000
      0.02985791000000000,        58.14256000000000,        737.7071000000000,        24.67878000000000
      0.02988006000000000,        57.97851000000000,        738.2988000000000,        24.76848000000000
      0.02990368000000000,        57.80554000000000,        738.9248000000000,        24.86367000000000
      0.02992935000000000,        57.61963000000000,        739.6001000000000,        24.96670000000000
      0.02995658000000000,        57.42497000000000,        740.3102000000000,        25.07540000000000
      0.02998168000000000,        57.24785000000000,        740.9586000000000,        25.17502000000000
      0.03000993000000000,        57.05101000000000,        741.6820000000000,        25.28655000000000
      0.03003779000000000,        56.85969000000000,        742.3880000000000,        25.39578000000000
      0.03006333000000000,        56.68670000000000,        743.0288000000000,        25.49528000000000
      0.03008920000000000,        56.51370000000000,        743.6720000000000,        25.59547000000000
      0.03010981000000000,        56.37763000000000,        744.1797000000000,        25.67478000000000
      0.03013406000000000,        56.21939000000000,        744.7718000000000,        25.76754000000000
      0.03016133000000000,        56.04378000000000,        745.4313000000000,        25.87118000000000
      0.03018928000000000,        55.86651000000000,        746.0995000000000,        25.97655000000000
      0.03021318000000000,        55.71715000000000,        746.6645000000000,        26.06591000000000
      0.03023959000000000,        55.55436000000000,        747.2823000000000,        26.16392000000000
      0.03026487000000000,        55.40085000000000,        747.8669000000000,        26.25696000000000
      0.03029103000000000,        55.24425000000000,        748.4652000000000,        26.35245000000000
      0.03031997000000000,        55.07383000000000,        749.1187000000000,        26.45710000000000
      0.03034393000000000,        54.93495000000000,        749.6531000000000,        26.54291000000000
      0.03037055000000000,        54.78298000000000,        750.2396000000000,        26.63737000000000
      0.03039605000000000,        54.63974000000000,        750.7942000000000,        26.72695000000000
      0.03042155000000000,        54.49870000000000,        751.3420000000000,        26.81567000000000
      0.03044879000000000,        54.35057000000000,        751.9193000000000,        26.90944000000000
      0.03047823000000000,        54.19338000000000,        752.5338000000000,        27.00954000000000
      0.03050605000000000,        54.04760000000000,        753.1056000000000,        27.10298000000000
      0.03052946000000000,        53.92699000000000,        753.5801000000000,        27.18072000000000
      0.03055118000000000,        53.81684000000000,        754.0146000000000,        27.25207000000000
      0.03057280000000000,        53.70877000000000,        754.4417999999999,        27.32238000000000
      0.03059875000000000,        53.58120000000000,        754.9475000000000,        27.40579000000000
      0.03062057000000000,        53.47578000000000,        755.3665999999999,        27.47507000000000
      0.03064344000000000,        53.36709000000000,        755.7995000000000,        27.54681000000000
      0.03066850000000000,        53.25000000000000,        756.2672000000000,        27.62447000000000
      0.03068945000000000,        53.15381000000000,        756.6523000000000,        27.68856000000000
      0.03071217000000000,        53.05129000000000,        757.0637000000000,        27.75716000000000
      0.03073790000000000,        52.93727000000000,        757.5223000000000,        27.83379000000000
      0.03075961000000000,        52.84284000000000,        757.9030000000000,        27.89755000000000
      0.03078040000000000,        52.75399000000000,        758.2619000000000,        27.95776000000000
      0.03080000000000000,        52.67156000000000,        758.5956000000000,        28.01385000000000
      0.03082557000000000,        52.56611000000000,        759.0234000000000,        28.08588000000000
      0.03085042000000000,        52.46571000000000,        759.4317000000000,        28.15477000000000
      0.03087137000000000,        52.38278000000000,        759.7695000000000,        28.21189000000000
      0.03089858000000000,        52.27733000000000,        760.2001000000000,        28.28482000000000
      0.03092883000000000,        52.16317000000000,        760.6675000000000,        28.36416000000000
      0.03095021000000000,        52.08436000000000,        760.9908000000000,        28.41915000000000
      0.03097111000000000,        52.00889000000000,        761.3010000000000,        28.47200000000000
      0.03099942000000000,        51.90902000000000,        761.7122000000001,        28.54218000000000
      0.03102487000000000,        51.82170000000000,        762.0725000000000,        28.60379000000000
      0.03104807000000000,        51.74399000000000,        762.3938000000001,        28.65883000000000
      0.03106920000000000,        51.67483000000000,        762.6803000000000,        28.70798000000000
      0.03109481000000000,        51.59318000000000,        763.0190000000000,        28.76617000000000
      0.03111494000000000,        51.53054000000000,        763.2793000000000,        28.81097000000000
      0.03114085000000000,        51.45200000000000,        763.6061999999999,        28.86730000000000
      0.03116131000000000,        51.39165000000000,        763.8578000000000,        28.91072000000000
      0.03118344000000000,        51.32802000000000,        764.1235000000000,        28.95663000000000
      0.03120997000000000,        51.25391000000000,        764.4334000000000,        29.01025000000000
      0.03123048000000000,        51.19835000000000,        764.6661000000000,        29.05057000000000
      0.03125942000000000,        51.12240000000000,        764.9846000000000,        29.10584000000000
      0.03128032000000000,        51.06937000000000,        765.2074000000000,        29.14454000000000
      0.03130135000000000,        51.01755000000000,        765.4254000000000,        29.18246000000000
      0.03132911000000000,        50.95148000000000,        765.7036000000001,        29.23091000000000
      0.03135008000000000,        50.90335000000000,        765.9065000000001,        29.26630000000000
      0.03137989000000000,        50.83757000000000,        766.1843000000000,        29.31479000000000
      0.03140869000000000,        50.77696000000000,        766.4406000000000,        29.35960000000000
      0.03143917000000000,        50.71592000000000,        766.6992000000000,        29.40485000000000
      0.03146303000000000,        50.67043000000000,        766.8921000000000,        29.43865000000000
      0.03149175000000000,        50.61827000000000,        767.1135000000000,        29.47749000000000
      0.03152000000000000,        50.56973000000000,        767.3197000000000,        29.51371000000000
      0.03154600000000000,        50.52756000000000,        767.4991000000000,        29.54523000000000
      0.03156845000000000,        50.49300000000000,        767.6463000000000,        29.57112000000000
      0.03159024000000000,        50.46114000000000,        767.7821000000000,        29.59502000000000
      0.03161002000000000,        50.43364000000000,        767.8993000000000,        29.61567000000000
      0.03163146000000000,        50.40540000000000,        768.0198000000000,        29.63691000000000
      0.03165913000000000,        50.37129000000000,        768.1655000000000,        29.66260000000000
      0.03167906000000000,        50.34837000000000,        768.2634000000000,        29.67988000000000
      0.03170005000000000,        50.32571000000000,        768.3603000000001,        29.69698000000000
      0.03172875000000000,        50.29724000000000,        768.4820999999999,        29.71849000000000
      0.03175064000000000,        50.27743000000000,        768.5667999999999,        29.73346000000000
      0.03177969000000000,        50.25372000000000,        768.6683000000000,        29.75141000000000
      0.03180017000000000,        50.23877000000000,        768.7323000000000,        29.76274000000000
      0.03182180000000000,        50.22458000000000,        768.7931000000000,        29.77349000000000
      0.03184948000000000,        50.20875000000000,        768.8610000000000,        29.78550000000000
      0.03186967000000000,        50.19889000000000,        768.9032000000000,        29.79298000000000
      0.03189318000000000,        50.18924000000000,        768.9446000000000,        29.80030000000000
      0.03190000000000000,        50.18675000000000,        768.9552000000000,        29.80219000000000
      0.03192024000000000,        50.18043000000000,        768.9823000000000,        29.80699000000000
      0.03194239000000000,        50.17517000000000,        769.0049000000000,        29.81098000000000
      0.03196992000000000,        50.17095000000000,        769.0229000000000,        29.81418000000000
      0.03198995000000000,        50.16955000000000,        769.0289000000000,        29.81524000000000
      0.03200074000000000,        50.16898000000000,        769.0314000000000,        29.81567000000000
      0.03214134000000000,        50.09990000000000,        769.3282000000000,        29.86832000000000
      0.03229035000000000,        50.03660000000000,        769.6007000000000,        29.91669000000000
      0.03240628000000000,        49.96083000000000,        769.9272999999999,        29.97477000000000
      0.03258974000000000,        49.93677000000000,        770.0309000000000,        29.99321000000000
      0.03268993000000000,        49.90838000000000,        770.1536000000000,        30.01506000000000
      0.03278975000000000,        49.86560000000000,        770.3385000000000,        30.04802000000000
      0.03289011000000000,        49.88413000000000,        770.2583000000000,        30.03373000000000
      0.03300000000000000,        49.90768000000000,        770.1566000000000,        30.01560000000000
      0.03310827000000000,        49.90770000000000,        770.1565000000001,        30.01559000000000
      0.03326374000000000,        49.88575000000000,        770.2514000000000,        30.03250000000000
      0.03332259000000000,        49.88192000000000,        770.2680000000000,        30.03545000000000
      0.03348796000000000,        49.86819000000000,        770.3274000000000,        30.04605000000000
      0.03359001000000000,        49.86668000000000,        770.3339000000000,        30.04720000000000
      0.03368999000000000,        49.90303000000000,        770.1767000000000,        30.01919000000000
      0.03379252000000000,        49.92586000000000,        770.0782000000000,        30.00164000000000
      0.03393497000000000,        49.93925000000000,        770.0203000000000,        29.99134000000000
      0.03409067000000000,        49.93720000000000,        770.0291999999999,        29.99291000000000
      0.03410000000000000,        49.93897000000000,        770.0216000000000,        29.99155000000000
      0.03428942000000000,        49.97020000000000,        769.8868000000000,        29.96757000000000
      0.03442252000000000,        49.98727000000000,        769.8132000000001,        29.95448000000000
      0.03458034000000000,        50.00243000000000,        769.7479000000000,        29.94286000000000
      0.03469288000000000,        50.02238000000000,        769.6618999999999,        29.92757000000000
      0.03479475000000000,        50.02749000000000,        769.6399000000000,        29.92366000000000
      0.03499437000000000,        50.07358000000000,        769.4414000000000,        29.88842000000000
      0.03519024000000000,        50.10572000000000,        769.3031999999999,        29.86388000000000
      0.03520000000000000,        50.10668000000000,        769.2990000000000,        29.86315000000000
      0.03530413000000000,        50.11871000000000,        769.2473000000000,        29.85397000000000
      0.03548928000000000,        50.16142000000000,        769.0637000000000,        29.82143000000000
      0.03559019000000000,        50.16550000000000,        769.0463000000000,        29.81834000000000
      0.03569664000000000,        50.17461000000000,        769.0071000000000,        29.81140000000000
      0.03588632000000000,        50.21616000000000,        768.8288000000000,        29.77983000000000
      0.03599030000000000,        50.23211000000000,        768.7604000000000,        29.76773000000000
      0.03618998000000000,        50.28583000000000,        768.5303000000000,        29.72704000000000
      0.03630000000000000,        50.29418000000000,        768.4945000000000,        29.72072000000000
      0.03645664000000000,        50.31133000000000,        768.4211000000000,        29.70775000000000
      0.03658950000000000,        50.32645000000000,        768.3564000000000,        29.69632000000000
      0.03669275000000000,        50.34213000000000,        768.2893000000000,        29.68447000000000
      0.03687800000000000,        50.38145000000000,        768.1212000000000,        29.65482000000000
      0.03699017000000000,        50.40233000000000,        768.0321000000000,        29.63910000000000
      0.03710350000000000,        50.41454000000000,        767.9799000000000,        29.62991000000000
      0.03729803000000000,        50.43682000000000,        767.8849000000000,        29.61316000000000
      0.03740000000000000,        50.44795000000000,        767.8374000000000,        29.60480000000000
      0.03758781000000000,        50.47075000000000,        767.7401000000000,        29.58767000000000
      0.03769015000000000,        50.49267000000000,        767.6467000000000,        29.57122000000000
      0.03779822000000000,        50.50690000000000,        767.5861000000000,        29.56056000000000
      0.03799711000000000,        50.53454000000000,        767.4684000000000,        29.53986000000000
      0.03819686000000000,        50.56511000000000,        767.3383000000000,        29.51701000000000
      0.03839333000000000,        50.59102000000000,        767.2283000000000,        29.49768000000000
      0.03850000000000000,        50.60164000000000,        767.1831000000000,        29.48976000000000
      0.03869074000000000,        50.62342000000000,        767.0906000000000,        29.47351000000000
      0.03888713000000000,        50.64679000000000,        766.9913000000000,        29.45610000000000
      0.03899097000000000,        50.66447000000000,        766.9162000000000,        29.44294000000000
      0.03918497000000000,        50.69212000000000,        766.7989000000000,        29.42238000000000
      0.03938861000000000,        50.71597000000000,        766.6979000000000,        29.40468000000000
      0.03958998000000000,        50.73577000000000,        766.6141000000000,        29.39001000000000
      0.03960000000000000,        50.73681000000000,        766.6097000000000,        29.38923000000000
      0.03989422000000000,        50.75617000000000,        766.5273000000000,        29.37482000000000
      0.04008904000000000,        50.78210000000000,        766.4176000000000,        29.35562000000000
      0.04019229000000000,        50.79022000000000,        766.3832000000000,        29.34960000000000
      0.04037837000000000,        50.81613000000000,        766.2736000000000,        29.33045000000000
      0.04049749000000000,        50.82895000000000,        766.2194000000000,        29.32099000000000
      0.04069039000000000,        50.84355000000000,        766.1577000000000,        29.31020000000000
      0.04070000000000000,        50.84462000000000,        766.1532000000000,        29.30941000000000
      0.04087269000000000,        50.86841000000000,        766.0526000000000,        29.29186000000000
      0.04098999000000000,        50.88304000000000,        765.9909000000000,        29.28108000000000
      0.04109384000000000,        50.88701000000000,        765.9741000000000,        29.27816000000000
      0.04128651000000000,        50.90519000000000,        765.8973000000000,        29.26476000000000
      0.04139101000000000,        50.91338000000000,        765.8628000000000,        29.25874000000000
      0.04158297000000000,        50.92913000000000,        765.7963000000000,        29.24714000000000
      0.04173208000000000,        50.94605000000000,        765.7249000000000,        29.23470000000000
      0.04180000000000000,        50.95331000000000,        765.6943000000000,        29.22937000000000
      0.04198519000000000,        50.96657000000000,        765.6384000000000,        29.21963000000000
      0.04209210000000000,        50.98372000000000,        765.5662000000000,        29.20705000000000
      0.04228964000000000,        51.01070000000000,        765.4526000000000,        29.18728000000000
      0.04240870000000000,        51.03535000000000,        765.3489000000000,        29.16922000000000
      0.04258972000000000,        51.05586000000000,        765.2627000000000,        29.15423000000000
      0.04269062000000000,        51.05059000000000,        765.2849000000000,        29.15809000000000
      0.04279023000000000,        51.05313000000000,        765.2742000000000,        29.15623000000000
      0.04290000000000000,        51.08345000000000,        765.1467000000000,        29.13407000000000
      0.04307330000000000,        51.09749000000000,        765.0878000000000,        29.12383000000000
      0.04318993000000000,        51.11917000000000,        764.9967000000000,        29.10801000000000
      0.04328996000000000,        51.17171000000000,        764.7762000000000,        29.06975000000000
      0.04338983000000000,        51.19674000000000,        764.6712000000000,        29.05155000000000
      0.04359004000000000,        51.20869000000000,        764.6212000000000,        29.04287000000000
      0.04369029000000000,        51.19054000000000,        764.6973000000000,        29.05606000000000
      0.04380026000000000,        51.19814000000000,        764.6654000000000,        29.05054000000000
      0.04398975000000000,        51.21527000000000,        764.5936000000000,        29.03809000000000
      0.04400000000000000,        51.21777000000000,        764.5832000000000,        29.03628000000000
      0.04418273000000000,        51.24999000000000,        764.4482000000000,        29.01291000000000
      0.04437788000000000,        51.27553000000000,        764.3413000000000,        28.99439000000000
      0.04449567000000000,        51.29027000000000,        764.2796000000000,        28.98372000000000
      0.04469723000000000,        51.31230000000000,        764.1876000000000,        28.96781000000000
      0.04489356000000000,        51.33717000000000,        764.0837000000000,        28.94984000000000
      0.04502158000000000,        51.35254000000000,        764.0195000000000,        28.93875000000000
      0.04510000000000000,        51.35948000000000,        763.9906000000000,        28.93374000000000
      0.04529679000000000,        51.38558000000000,        763.8816000000000,        28.91492000000000
      0.04559396000000000,        51.41692000000000,        763.7507000000001,        28.89233000000000
      0.04579017000000000,        51.44229000000000,        763.6451000000000,        28.87409000000000
      0.04598155000000000,        51.46548000000000,        763.5484000000000,        28.85743000000000
      0.04612960000000000,        51.48403000000000,        763.4712000000000,        28.84413000000000
      0.04620000000000000,        51.49271000000000,        763.4351000000000,        28.83789000000000
      0.04639003000000000,        51.52067000000000,        763.3187000000000,        28.81785000000000
      0.04656871000000000,        51.53986000000000,        763.2388999999999,        28.80411000000000
      0.04669148000000000,        51.55243000000000,        763.1866000000000,        28.79512000000000
      0.04687780000000000,        51.58344000000000,        763.0578000000000,        28.77295000000000
      0.04699000000000000,        51.59296000000000,        763.0182000000000,        28.76614000000000
      0.04728333000000000,        51.62696000000000,        762.8770000000000,        28.74187000000000
      0.04730000000000000,        51.62944000000000,        762.8665999999999,        28.74009000000000
      0.04748944000000000,        51.65868000000000,        762.7454000000000,        28.71927000000000
      0.04759096000000000,        51.66815000000000,        762.7061000000000,        28.71252000000000
      0.04776783000000000,        51.69715000000000,        762.5859000000000,        28.69189000000000
      0.04789015000000000,        51.71545000000000,        762.5103000000000,        28.67891000000000
      0.04799910000000000,        51.71888000000000,        762.4960000000000,        28.67647000000000
      0.04816785000000000,        51.74683000000000,        762.3803000000000,        28.65663000000000
      0.04830195000000000,        51.76070000000000,        762.3230000000000,        28.64681000000000
      0.04840000000000000,        51.76922000000000,        762.2877999999999,        28.64078000000000
      0.04858913000000000,        51.79085000000000,        762.1984000000000,        28.62546000000000
      0.04871806000000000,        51.80993000000000,        762.1195000000000,        28.61195000000000
      0.04898906000000000,        51.84138000000000,        761.9896000000000,        28.58973000000000
      0.04908999000000000,        51.85858000000000,        761.9186000000000,        28.57758000000000
      0.04919095000000000,        51.86507000000000,        761.8918000000000,        28.57301000000000
      0.04929577000000000,        51.86987000000000,        761.8720000000000,        28.56961000000000
      0.04948997000000000,        51.90477000000000,        761.7281000000000,        28.54503000000000
      0.04950000000000000,        51.90535000000000,        761.7257000000000,        28.54462000000000
      0.04967829000000000,        51.92002000000000,        761.6653000000000,        28.53429000000000
      0.04979028000000000,        51.92846000000000,        761.6305000000000,        28.52835000000000
      0.04989097000000000,        51.95477000000000,        761.5221000000000,        28.50985000000000
      0.04999380000000000,        51.97040000000000,        761.4578000000000,        28.49887000000000
      0.05016397000000000,        51.97486000000000,        761.4394000000000,        28.49574000000000
      0.05029015000000000,        51.98965000000000,        761.3785000000000,        28.48536000000000
      0.05039204000000000,        51.99505000000000,        761.3563000000000,        28.48156000000000
      0.05050230000000000,        52.00774000000000,        761.3040999999999,        28.47266000000000
      0.05060000000000000,        52.02436000000000,        761.2357000000000,        28.46101000000000
      0.05078562000000000,        52.03409000000000,        761.1958000000000,        28.45420000000000
      0.05089035000000000,        52.04462000000000,        761.1523999999999,        28.44681000000000
      0.05099550000000000,        52.06436000000000,        761.0713000000000,        28.43299000000000
      0.05118868000000000,        52.08318000000000,        760.9940000000000,        28.41983000000000
      0.05129648000000000,        52.09579000000000,        760.9421000000000,        28.41101000000000
      0.05143228000000000,        52.10330000000000,        760.9113000000000,        28.40577000000000
      0.05158973000000000,        52.12205000000000,        760.8343000000000,        28.39267000000000
      0.05169038000000000,        52.13451000000000,        760.7833000000001,        28.38399000000000
      0.05170000000000000,        52.13460000000000,        760.7829000000000,        28.38392000000000
      0.05199142000000000,        52.14735000000000,        760.7306000000000,        28.37503000000000
      0.05219052000000000,        52.16689000000000,        760.6506000000001,        28.36143000000000
      0.05238989000000000,        52.17667000000000,        760.6105000000000,        28.35462000000000
      0.05250262000000000,        52.19285000000000,        760.5443000000000,        28.34337000000000
      0.05268178000000000,        52.20978000000000,        760.4750000000000,        28.33160000000000
      0.05278499000000000,        52.22658000000000,        760.4061000000000,        28.31992000000000
      0.05280000000000000,        52.22783000000000,        760.4011000000000,        28.31906000000000
      0.05298971000000000,        52.23137000000000,        760.3866000000000,        28.31660000000000
      0.05318994000000000,        52.25696000000000,        760.2819000000000,        28.29884000000000
      0.05338997000000000,        52.26813000000000,        760.2363000000000,        28.29111000000000
      0.05356904000000000,        52.28762000000000,        760.1567000000000,        28.27761000000000
      0.05374070000000000,        52.30085000000000,        760.1027000000000,        28.26845000000000
      0.05388324000000000,        52.30964000000000,        760.0667000000000,        28.26236000000000
      0.05390000000000000,        52.31176000000000,        760.0580000000000,        28.26089000000000
      0.05407637000000000,        52.33280000000000,        759.9722000000000,        28.24634000000000
      0.05418960000000000,        52.34606000000000,        759.9180000000000,        28.23717000000000
      0.05429647000000000,        52.35168000000000,        759.8951000000000,        28.23329000000000
      0.05439861000000000,        52.35717000000000,        759.8727000000000,        28.22950000000000
      0.05459162000000000,        52.38190000000000,        759.7718000000000,        28.21243000000000
      0.05478806000000000,        52.40233000000000,        759.6885000000000,        28.19834000000000
      0.05489106000000000,        52.40824000000000,        759.6644000000000,        28.19427000000000
      0.05500000000000000,        52.41834000000000,        759.6233000000000,        28.18731000000000
      0.05515630000000000,        52.44108000000000,        759.5306000000000,        28.17165000000000
      0.05528688000000000,        52.44612000000000,        759.5101000000000,        28.16819000000000
      0.05539136000000000,        52.45427000000000,        759.4769000000000,        28.16257000000000
      0.05558965000000000,        52.47530000000000,        759.3912000000000,        28.14810000000000
      0.05584272000000000,        52.49817000000000,        759.2981000000000,        28.13238000000000
      0.05599017000000000,        52.51018000000000,        759.2492999999999,        28.12414000000000
      0.05610000000000000,        52.52275000000000,        759.1982000000000,        28.11552000000000
      0.05629022000000000,        52.53941000000000,        759.1304000000000,        28.10409000000000
      0.05640572000000000,        52.55080000000000,        759.0841000000000,        28.09628000000000
      0.05658356000000000,        52.57406000000000,        758.9896000000000,        28.08035000000000
      0.05669339000000000,        52.58066000000000,        758.9628000000000,        28.07584000000000
      0.05688987000000000,        52.59828000000000,        758.8913000000000,        28.06380000000000
      0.05702393000000000,        52.60590000000000,        758.8604000000000,        28.05858000000000
      0.05719097000000000,        52.62804000000000,        758.7705999999999,        28.04346000000000
      0.05720000000000000,        52.62883000000000,        758.7674000000000,        28.04293000000000
      0.05739285000000000,        52.64867000000000,        758.6869000000000,        28.02938000000000
      0.05759233000000000,        52.66957000000000,        758.6022000000000,        28.01513000000000
      0.05778362000000000,        52.68997000000000,        758.5196000000000,        28.00123000000000
      0.05789093000000000,        52.69688000000000,        758.4915999999999,        27.99653000000000
      0.05807439000000000,        52.71851000000000,        758.4040000000000,        27.98181000000000
      0.05828992000000000,        52.73361000000000,        758.3429000000000,        27.97155000000000
      0.05830000000000000,        52.73462000000000,        758.3388000000000,        27.97086000000000
      0.05848987000000000,        52.75674000000000,        758.2494000000000,        27.95584000000000
      0.05869146000000000,        52.77976000000000,        758.1563000000000,        27.94021000000000
      0.05898707000000000,        52.81454000000000,        758.0158000000000,        27.91665000000000
      0.05912462000000000,        52.82824000000000,        757.9606000000000,        27.90738000000000
      0.05938964000000000,        52.85757000000000,        757.8422000000000,        27.88753000000000
      0.05940000000000000,        52.85811000000000,        757.8400000000000,        27.88717000000000
      0.05957457000000000,        52.87435000000000,        757.7745000000000,        27.87620000000000
      0.05969636000000000,        52.89103000000000,        757.7071999999999,        27.86492000000000
      0.05982884000000000,        52.90105000000000,        757.6668000000000,        27.85816000000000
      0.05998998000000000,        52.92306000000000,        757.5780999999999,        27.84332000000000
      0.06012251000000000,        52.93716000000000,        757.5213000000000,        27.83381000000000
      0.06029002000000000,        52.95687000000000,        757.4420000000000,        27.82055000000000
      0.06039088000000000,        52.95904000000000,        757.4332000000001,        27.81908000000000
      0.06049849000000000,        52.97604000000000,        757.3647999999999,        27.80765000000000
      0.06050000000000000,        52.97620000000000,        757.3642000000000,        27.80754000000000
      0.06068424000000000,        52.98884000000000,        757.3133000000000,        27.79904000000000
      0.06079010000000000,        52.99615000000000,        757.2839000000000,        27.79413000000000
      0.06089127000000000,        52.99903000000000,        757.2723000000000,        27.79219000000000
      0.06109062000000000,        53.02641000000000,        757.1622000000000,        27.77380000000000
      0.06125599000000000,        53.04472000000000,        757.0887000000000,        27.76152000000000
      0.06137839000000000,        53.06150000000000,        757.0213000000000,        27.75028000000000
      0.06149003000000000,        53.08205000000000,        756.9388000000000,        27.73651000000000
      0.06160000000000000,        53.08627000000000,        756.9218000000000,        27.73368000000000
      0.06179800000000000,        53.10097000000000,        756.8627000000000,        27.72382000000000
      0.06198471000000000,        53.12669000000000,        756.7595000000000,        27.70662000000000
      0.06209013000000000,        53.12598000000000,        756.7624000000000,        27.70710000000000
      0.06219358000000000,        53.13553000000000,        756.7241000000000,        27.70071000000000
      0.06232880000000000,        53.15812000000000,        756.6335000000000,        27.68563000000000
      0.06249025000000000,        53.17717000000000,        756.5572000000000,        27.67292000000000
      0.06260577000000001,        53.18718000000000,        756.5172000000000,        27.66625000000000
      0.06270000000000001,        53.19269000000000,        756.4951000000000,        27.66258000000000
      0.06289383000000000,        53.21381000000000,        756.4105000000000,        27.64851000000000
      0.06309143000000000,        53.23402000000000,        756.3297000000000,        27.63507000000000
      0.06327860000000000,        53.25085000000000,        756.2624000000000,        27.62387000000000
      0.06339011000000000,        53.25823000000000,        756.2329000000000,        27.61897000000000
      0.06359086999999999,        53.26969000000000,        756.1869000000000,        27.61133000000000
      0.06378982000000000,        53.30245000000000,        756.0560000000000,        27.58959000000000
      0.06380000000000000,        53.30313000000000,        756.0533000000000,        27.58914000000000
      0.06398976000000001,        53.30764000000000,        756.0354000000000,        27.58616000000000
      0.06418562999999999,        53.32379000000000,        755.9708000000001,        27.57545000000000
      0.06429005000000000,        53.33547000000000,        755.9242000000000,        27.56770000000000
      0.06439580000000000,        53.34965000000000,        755.8676000000000,        27.55832000000000
      0.06459023999999999,        53.36575000000000,        755.8034000000000,        27.54766000000000
      0.06479103000000000,        53.37490000000000,        755.7664000000000,        27.54153000000000
      0.06490000000000000,        53.39496000000000,        755.6865000000000,        27.52827000000000
      0.06509146000000000,        53.41051000000000,        755.6245000000000,        27.51801000000000
      0.06528164000000000,        53.40310000000000,        755.6541000000000,        27.52291000000000
      0.06539017000000000,        53.41990000000000,        755.5871000000000,        27.51181000000000
      0.06549692999999999,        53.44497000000000,        755.4873000000000,        27.49527000000000
      0.06568127999999999,        53.45553000000000,        755.4452000000000,        27.48831000000000
      0.06578911000000000,        53.46194000000000,        755.4197000000000,        27.48409000000000
      0.06591485000000000,        53.47745000000000,        755.3579999999999,        27.47388000000000
      0.06600000000000000,        53.48638000000000,        755.3226000000000,        27.46801000000000
      0.06619129000000000,        53.50227000000000,        755.2593000000001,        27.45755000000000
      0.06637695000000000,        53.51950000000000,        755.1909000000001,        27.44623000000000
      0.06658988000000000,        53.53677000000000,        755.1222000000000,        27.43487000000000
      0.06678260000000000,        53.54732000000000,        755.0803000000000,        27.42795000000000
      0.06689150000000001,        53.55716000000000,        755.0412000000000,        27.42148000000000
      0.06710000000000001,        53.57889000000000,        754.9553000000000,        27.40731000000000
      0.06724391000000000,        53.58457000000000,        754.9328000000000,        27.40358000000000
      0.06738833000000000,        53.59984000000000,        754.8722000000000,        27.39358000000000
      0.06749044999999999,        53.60450000000000,        754.8537000000000,        27.39053000000000
      0.06760492000000000,        53.60535000000000,        754.8504000000000,        27.38997000000000
      0.06777378000000001,        53.62907000000000,        754.7563000000000,        27.37445000000000
      0.06788956000000000,        53.66079000000000,        754.6305000000000,        27.35371000000000
      0.06798927000000000,        53.65330000000000,        754.6602000000000,        27.35861000000000
      0.06808997999999999,        53.62921000000000,        754.7557000000000,        27.37436000000000
      0.06819039000000000,        53.62300000000000,        754.7803000000000,        27.37841000000000
      0.06820000000000000,        53.62441000000000,        754.7747000000001,        27.37749000000000
      0.06831688000000000,        53.65482000000000,        754.6541000000000,        27.35760000000000
      0.06839656000000000,        53.70414000000000,        754.4588000000000,        27.32540000000000
      0.06858835000000001,        53.70989000000000,        754.4360000000000,        27.32166000000000
      0.06868999000000001,        53.68568000000000,        754.5319000000000,        27.33746000000000
      0.06879006999999999,        53.72586000000000,        754.3729000000000,        27.31126000000000
      0.06889006000000000,        53.75346000000000,        754.2637000000000,        27.29329000000000
      0.06899014000000001,        53.74052000000000,        754.3149000000000,        27.30171000000000
      0.06909260000000000,        53.73893000000000,        754.3211000000000,        27.30274000000000
      0.06928955000000001,        53.75657000000000,        754.2514000000000,        27.29126000000000
      0.06930000000000000,        53.75757000000000,        754.2474999999999,        27.29062000000000
      0.06959035000000000,        53.77942000000000,        754.1611000000000,        27.27642000000000
      0.06979042000000001,        53.79729000000000,        754.0905000000000,        27.26480000000000
      0.06994740000000001,        53.80875000000000,        754.0452000000000,        27.25735000000000
      0.07018362000000000,        53.83034000000000,        753.9598999999999,        27.24333000000000
      0.07029007000000000,        53.83200000000000,        753.9533000000000,        27.24225000000000
      0.07040000000000000,        53.84752000000000,        753.8921000000000,        27.23218000000000
      0.07058759000000001,        53.86321000000000,        753.8302000000000,        27.22202000000000
      0.07069002000000001,        53.87135000000000,        753.7981000000000,        27.21674000000000
      0.07079096000000000,        53.87709000000000,        753.7754000000000,        27.21303000000000
      0.07097916000000000,        53.89511000000000,        753.7044000000000,        27.20137000000000
      0.07109098000000000,        53.90209000000000,        753.6769000000000,        27.19686000000000
      0.07128487000000000,        53.92095000000000,        753.6026000000001,        27.18466000000000
      0.07149530000000000,        53.94011000000000,        753.5271000000000,        27.17229000000000
      0.07149999999999999,        53.94049000000000,        753.5256000000001,        27.17204000000000
      0.07169006000000000,        53.95697000000000,        753.4607000000000,        27.16141000000000
      0.07179076000000000,        53.95525000000000,        753.4675000000000,        27.16251000000000
      0.07190169000000000,        53.96292000000000,        753.4372000000000,        27.15756000000000
      0.07208125000000000,        53.98754000000000,        753.3404000000000,        27.14168000000000
      0.07218879000000000,        53.98841000000000,        753.3370000000000,        27.14113000000000
      0.07228970000000000,        53.99651000000000,        753.3051000000000,        27.13590000000000
      0.07239673000000001,        54.01185000000000,        753.2448000000001,        27.12603000000000
      0.07260000000000000,        54.02987000000000,        753.1742000000000,        27.11447000000000
      0.07278991999999999,        54.03758000000000,        753.1439000000000,        27.10950000000000
      0.07289173000000000,        54.04637000000000,        753.1093000000000,        27.10385000000000
      0.07309018000000000,        54.06914000000000,        753.0200000000000,        27.08924000000000
      0.07321640000000000,        54.07692000000000,        752.9894000000000,        27.08424000000000
      0.07339050000000000,        54.09718000000000,        752.9100000000000,        27.07125000000000
      0.07349932000000001,        54.10125000000000,        752.8939000000000,        27.06863000000000
      0.07370000000000000,        54.12206000000000,        752.8123000000001,        27.05529000000000
      0.07390360000000000,        54.13670000000000,        752.7550000000000,        27.04593000000000
      0.07408613000000000,        54.15707000000000,        752.6751000000000,        27.03288000000000
      0.07419043000000000,        54.16155000000000,        752.6575000000000,        27.03002000000000
      0.07438875000000000,        54.18203000000000,        752.5773000000000,        27.01692000000000
      0.07449003000000000,        54.18680000000000,        752.5587000000000,        27.01388000000000
      0.07459644999999999,        54.17741000000000,        752.5954000000000,        27.01988000000000
      0.07478775000000000,        54.21827000000000,        752.4354000000000,        26.99377000000000
      0.07480000000000001,        54.21979000000000,        752.4295000000000,        26.99280000000000
      0.07499019000000000,        54.23177000000000,        752.3826000000000,        26.98517000000000
      0.07519397000000000,        54.24735000000000,        752.3217000000000,        26.97524000000000
      0.07539024000000000,        54.26393000000000,        752.2569000000000,        26.96467000000000
      0.07558226999999999,        54.28003000000000,        752.1939000000000,        26.95442000000000
      0.07569028999999999,        54.28683000000000,        752.1673000000000,        26.95008000000000
      0.07589224000000000,        54.30843000000000,        752.0830999999999,        26.93636000000000
      0.07590000000000000,        54.30896000000000,        752.0810000000000,        26.93603000000000
      0.07608707000000001,        54.32831000000000,        752.0054000000000,        26.92373000000000
      0.07619065000000000,        54.34632000000000,        751.9351000000000,        26.91229000000000
      0.07633722000000000,        54.34779000000000,        751.9294000000000,        26.91137000000000
      0.07648706000000000,        54.34549000000000,        751.9384000000000,        26.91282000000000
      0.07660793000000000,        54.35373000000000,        751.9062000000000,        26.90759000000000
      0.07677392000000000,        54.38343000000000,        751.7903000000000,        26.88875000000000
      0.07688829000000000,        54.40242000000000,        751.7163000000000,        26.87672000000000
      0.07698923000000001,        54.39946000000000,        751.7279000000000,        26.87860000000000
      0.07700000000000000,        54.39998000000000,        751.7259000000000,        26.87827000000000
      0.07713420999999999,        54.41103000000000,        751.6827000000000,        26.87127000000000
      0.07730724000000000,        54.42386000000000,        751.6328000000000,        26.86316000000000
      0.07746304000000000,        54.43687000000000,        751.5821000000000,        26.85492000000000
      0.07758993000000000,        54.44802000000000,        751.5386999999999,        26.84788000000000
      0.07772825999999999,        54.45439000000000,        751.5139000000000,        26.84385000000000
      0.07794719000000000,        54.47223000000000,        751.4444000000000,        26.83257000000000
      0.07807192000000000,        54.48682000000000,        751.3876000000000,        26.82336000000000
      0.07810000000000000,        54.49025000000000,        751.3742999999999,        26.82120000000000
      0.07828789999999999,        54.49708000000000,        751.3478000000000,        26.81690000000000
      0.07839019999999999,        54.50901000000000,        751.3013999999999,        26.80937000000000
      0.07850011000000000,        54.51545000000000,        751.2764000000000,        26.80531000000000
      0.07868978000000000,        54.52161000000000,        751.2523000000000,        26.80142000000000
      0.07888335000000000,        54.55296000000000,        751.1304000000000,        26.78166000000000
      0.07898859000000000,        54.55096000000000,        751.1382000000000,        26.78292000000000
      0.07909005000000000,        54.55238000000000,        751.1326000000000,        26.78202000000000
      0.07919469000000000,        54.57083000000000,        751.0610000000000,        26.77042000000000
      0.07920000000000001,        54.57163000000000,        751.0578000000000,        26.76991000000000
      0.07938953000000000,        54.59290000000000,        750.9752999999999,        26.75654000000000
      0.07962389000000000,        54.61110000000000,        750.9048000000000,        26.74513000000000
      0.07978654000000000,        54.64030000000000,        750.7915000000000,        26.72681000000000
      0.07988993000000000,        54.65136000000000,        750.7487000000000,        26.71988000000000
      0.07999004999999999,        54.64301000000000,        750.7811000000000,        26.72512000000000
      0.08018159000000000,        54.65315000000000,        750.7418000000000,        26.71876000000000
      0.08028954000000001,        54.66150000000000,        750.7094000000000,        26.71353000000000
      0.08030000000000000,        54.66307000000000,        750.7033000000000,        26.71254000000000
      0.08046818000000000,        54.68506000000000,        750.6181000000000,        26.69877000000000
      0.08058946000000000,        54.69062000000000,        750.5966000000000,        26.69529000000000
      0.08070487000000000,        54.69657000000000,        750.5735000000000,        26.69157000000000
      0.08087677000000000,        54.69024000000000,        750.5981000000000,        26.69554000000000
      0.08098975999999999,        54.70334000000000,        750.5473000000000,        26.68734000000000
      0.08109087000000000,        54.72458000000000,        750.4651000000000,        26.67406000000000
      0.08120943000000000,        54.73558000000000,        750.4225000000000,        26.66718000000000
      0.08138998000000000,        54.75660000000000,        750.3412000000000,        26.65406000000000
      0.08140000000000000,        54.75660000000000,        750.3412000000000,        26.65406000000000
      0.08158912000000000,        54.76420000000000,        750.3117999999999,        26.64932000000000
      0.08169147000000000,        54.77750000000000,        750.2604000000000,        26.64103000000000
      0.08189012000000000,        54.78802000000000,        750.2197000000000,        26.63447000000000
      0.08203589999999999,        54.80252000000000,        750.1636999999999,        26.62543000000000
      0.08219056000000000,        54.80925000000000,        750.1377000000000,        26.62124000000000
      0.08238967000000000,        54.82527000000000,        750.0758000000000,        26.61126000000000
      0.08249846000000000,        54.83736000000000,        750.0291000000000,        26.60374000000000
      0.08250000000000000,        54.83749000000000,        750.0286000000000,        26.60366000000000
      0.08268879000000000,        54.85159000000000,        749.9742000000000,        26.59490000000000
      0.08280743000000000,        54.85962000000000,        749.9432000000000,        26.58991000000000
      0.08298965000000000,        54.86704000000000,        749.9145000000000,        26.58529000000000
      0.08309434000000000,        54.88177000000000,        749.8577000000000,        26.57614000000000
      0.08326234000000000,        54.89435000000000,        749.8092000000000,        26.56833000000000
      0.08339288000000000,        54.91035000000000,        749.7474999999999,        26.55840000000000
      0.08353426999999999,        54.91955000000000,        749.7120000000000,        26.55270000000000
      0.08359999999999999,        54.91638000000000,        749.7242000000000,        26.55466000000000
      0.08378953000000000,        54.93491000000000,        749.6528000000000,        26.54317000000000
      0.08388994000000000,        54.93497000000000,        749.6525000000000,        26.54313000000000
      0.08399055000000000,        54.94241000000000,        749.6238000000000,        26.53852000000000
      0.08416580999999999,        54.96169000000000,        749.5496000000001,        26.52658000000000
      0.08428837000000000,        54.97307000000000,        749.5057000000000,        26.51953000000000
      0.08446120999999999,        54.98680000000000,        749.4529000000000,        26.51105000000000
      0.08459021999999999,        55.00051000000000,        749.4001000000000,        26.50257000000000
      0.08470000000000000,        55.00739000000000,        749.3736000000000,        26.49832000000000
      0.08488837000000000,        55.01594000000000,        749.3407999999999,        26.49304000000000
      0.08502477999999999,        55.02064000000000,        749.3227000000001,        26.49014000000000
      0.08519119999999999,        55.03934000000000,        749.2507000000001,        26.47859000000000
      0.08538749000000000,        55.05999000000000,        749.1713000000000,        26.46585000000000
      0.08549743000000000,        55.06967000000000,        749.1343000000001,        26.45991000000000
      0.08568837999999999,        55.08193000000000,        749.0872000000001,        26.45235000000000
      0.08580000000000000,        55.09105000000000,        749.0522999999999,        26.44677000000000
      0.08598817000000000,        55.10413000000000,        749.0021000000000,        26.43872000000000
      0.08618678000000000,        55.12257000000000,        748.9313000000000,        26.42736000000000
      0.08629141999999999,        55.12655000000000,        748.9160000000001,        26.42492000000000
      0.08640137000000001,        55.12951000000000,        748.9046000000000,        26.42310000000000
      0.08666757000000000,        55.15649000000000,        748.8012000000000,        26.40652000000000
      0.08679025999999999,        55.16176000000000,        748.7809999999999,        26.40329000000000
      0.08690000000000001,        55.16769000000000,        748.7582000000000,        26.39965000000000
      0.08709270000000000,        55.18054000000000,        748.7089999999999,        26.39177000000000
      0.08728846000000000,        55.19617000000000,        748.6491000000000,        26.38219000000000
      0.08749241000000001,        55.21206000000000,        748.5883000000000,        26.37245000000000
      0.08768869999999999,        55.22556000000000,        748.5365000000000,        26.36418000000000
      0.08788834000000000,        55.24115000000000,        748.4768000000000,        26.35464000000000
      0.08798994000000000,        55.26772000000000,        748.3751000000000,        26.33838000000000
      0.08799999999999999,        55.26803000000000,        748.3739000000000,        26.33819000000000
      0.08818979000000000,        55.26030000000000,        748.4035000000000,        26.34292000000000
      0.08828991999999999,        55.27294000000000,        748.3552000000000,        26.33520000000000
      0.08839065000000000,        55.27866000000000,        748.3333000000000,        26.33171000000000
      0.08851253000000001,        55.29696000000000,        748.2634000000000,        26.32053000000000
      0.08868946000000000,        55.29833000000000,        748.2581000000000,        26.31970000000000
      0.08879908000000000,        55.31182000000000,        748.2066000000000,        26.31147000000000
      0.08899409000000000,        55.32474000000000,        748.1572000000000,        26.30359000000000
      0.08910000000000000,        55.33360000000000,        748.1233999999999,        26.29819000000000
      0.08928936000000000,        55.36065000000000,        748.0201000000000,        26.28171000000000
      0.08939119000000000,        55.35747000000000,        748.0323000000000,        26.28365000000000
      0.08958990999999999,        55.37903000000000,        747.9499000000000,        26.27052000000000
      0.08969420000000000,        55.37931000000000,        747.9489000000000,        26.27036000000000
      0.08988765000000000,        55.38155000000000,        747.9403000000000,        26.26899000000000
      0.08998715000000000,        55.39877000000000,        747.8746000000000,        26.25852000000000
      0.09009178000000000,        55.41476000000000,        747.8136000000000,        26.24880000000000
      0.09020000000000000,        55.42195000000000,        747.7862000000000,        26.24444000000000
      0.09039369000000000,        55.43339000000000,        747.7426000000000,        26.23748000000000
      0.09058964999999999,        55.45213000000000,        747.6712000000000,        26.22612000000000
      0.09078762999999999,        55.46773000000000,        747.6118000000000,        26.21666000000000
      0.09097755000000000,        55.47879000000000,        747.5696000000000,        26.20995000000000
      0.09109318000000000,        55.48958000000000,        747.5286000000000,        26.20343000000000
      0.09129086000000000,        55.50257000000000,        747.4792000000000,        26.19556000000000
      0.09130000000000001,        55.50298000000000,        747.4776000000001,        26.19532000000000
      0.09158930999999999,        55.52655000000000,        747.3878999999999,        26.18105000000000
      0.09169012000000000,        55.53078000000000,        747.3718000000000,        26.17850000000000
      0.09183098000000001,        55.54528000000000,        747.3166000000000,        26.16972000000000
      0.09198993000000000,        55.55677000000000,        747.2730000000000,        26.16278000000000
      0.09209787000000000,        55.56584000000000,        747.2385000000000,        26.15730000000000
      0.09229070000000000,        55.58211000000000,        747.1767000000000,        26.14750000000000
      0.09239421000000000,        55.59045000000000,        747.1450000000000,        26.14246000000000
      0.09240000000000000,        55.59059000000000,        747.1445000000000,        26.14238000000000
      0.09258821000000000,        55.60116000000000,        747.1044000000001,        26.13601000000000
      0.09269262000000000,        55.61587000000000,        747.0485000000000,        26.12714000000000
      0.09288962000000001,        55.63115000000000,        746.9905000000000,        26.11793000000000
      0.09299265000000000,        55.64312000000000,        746.9450000000001,        26.11072000000000
      0.09319099000000000,        55.66036000000000,        746.8796000000000,        26.10034000000000
      0.09338858999999999,        55.66635000000000,        746.8569000000000,        26.09674000000000
      0.09350000000000000,        55.67733000000000,        746.8148000000000,        26.09007000000000
      0.09368960000000000,        55.68721000000000,        746.7773999999999,        26.08414000000000
      0.09379098000000000,        55.69983000000000,        746.7295000000000,        26.07656000000000
      0.09394175000000000,        55.71217000000000,        746.6828000000000,        26.06915000000000
      0.09408859999999999,        55.72539000000000,        746.6327000000000,        26.06121000000000
      0.09419060000000000,        55.73054000000000,        746.6132000000000,        26.05813000000000
      0.09438808000000000,        55.74893000000000,        746.5435000000000,        26.04710000000000
      0.09448989000000001,        55.75327000000000,        746.5271000000000,        26.04451000000000
      0.09460000000000000,        55.76499000000000,        746.4828000000000,        26.03749000000000
      0.09478997000000000,        55.77457000000000,        746.4466000000000,        26.03176000000000
      0.09489027000000000,        55.79439000000000,        746.3715999999999,        26.01990000000000
      0.09499470000000000,        55.80331000000000,        746.3379000000000,        26.01456000000000
      0.09518986000000000,        55.80464000000000,        746.3328000000000,        26.01376000000000
      0.09535984000000000,        55.82300000000000,        746.2634000000000,        26.00279000000000
      0.09558977000000000,        55.82828000000000,        746.2435000000000,        25.99964000000000
      0.09569086000000000,        55.83562000000000,        746.2157000000000,        25.99525000000000
      0.09569999999999999,        55.83663000000000,        746.2119000000000,        25.99464000000000
      0.09596651000000000,        55.86350000000000,        746.1104000000000,        25.97861000000000
      0.09609115000000000,        55.86798000000000,        746.0934999999999,        25.97594000000000
      0.09619936000000000,        55.87060000000000,        746.0836000000000,        25.97438000000000
      0.09638988000000000,        55.89737000000000,        745.9825000000000,        25.95842000000000
      0.09658960000000000,        55.90388000000000,        745.9580000000000,        25.95456000000000
      0.09669001000000001,        55.92455000000000,        745.8801000000000,        25.94225000000000
      0.09679101000000000,        55.93292000000000,        745.8484999999999,        25.93728000000000
      0.09680000000000000,        55.93248000000000,        745.8502000000000,        25.93754000000000
      0.09698215000000000,        55.93611000000000,        745.8365000000000,        25.93538000000000
      0.09714543000000000,        55.94464000000000,        745.8045000000000,        25.93033000000000
      0.09729171000000000,        55.95351000000000,        745.7710000000000,        25.92505000000000
      0.09741387999999999,        55.96688000000000,        745.7206000000000,        25.91710000000000
      0.09760053000000000,        55.97445000000000,        745.6920000000000,        25.91260000000000
      0.09777157000000000,        55.98630000000000,        745.6473000000000,        25.90556000000000
      0.09788992000000001,        55.98779000000000,        745.6417000000000,        25.90467000000000
      0.09790000000000000,        55.98940000000000,        745.6356000000000,        25.90371000000000
      0.09800631999999999,        56.00461000000000,        745.5784000000000,        25.89470000000000
      0.09818329000000001,        56.01531000000000,        745.5381000000000,        25.88835000000000
      0.09839264000000000,        56.03412000000000,        745.4672000000000,        25.87719000000000
      0.09866672000000000,        56.05352000000000,        745.3942000000000,        25.86569000000000
      0.09887845000000001,        56.06345000000000,        745.3569000000000,        25.85982000000000
      0.09899057000000000,        56.07631000000000,        745.3085000000000,        25.85221000000000
      0.09900000000000000,        56.07791000000000,        745.3025000000000,        25.85127000000000
      0.09918979999999999,        56.09471000000000,        745.2394000000000,        25.84135000000000
      0.09933022000000000,        56.09526000000000,        745.2373000000000,        25.84101000000000
      0.09949947000000001,        56.10763000000000,        745.1909000000001,        25.83372000000000
      0.09969097000000000,        56.11754000000000,        745.1537000000000,        25.82787000000000
      0.09988962999999999,        56.13249000000000,        745.0976000000001,        25.81905000000000
      0.09999129000000000,        56.13726000000000,        745.0796000000000,        25.81623000000000
       0.1001000000000000,        56.14691000000000,        745.0434000000000,        25.81053000000000
       0.1002901000000000,        56.15685000000000,        745.0060999999999,        25.80467000000000
       0.1004774000000000,        56.18007000000000,        744.9189000000000,        25.79098000000000
       0.1005917000000000,        56.18670000000000,        744.8940000000000,        25.78709000000000
       0.1007906000000000,        56.19903000000000,        744.8478000000000,        25.77982000000000
       0.1009900000000000,        56.21061000000000,        744.8044000000000,        25.77301000000000
       0.1010943000000000,        56.22475000000000,        744.7514000000000,        25.76470000000000
       0.1012000000000000,        56.22998000000000,        744.7318000000000,        25.76162000000000
       0.1013888000000000,        56.25458000000000,        744.6396000000000,        25.74717000000000
       0.1014908000000000,        56.26998000000000,        744.5820000000000,        25.73813000000000
       0.1016024000000000,        56.27033000000000,        744.5807000000000,        25.73793000000000
       0.1017065000000000,        56.22004000000000,        744.7690000000000,        25.76747000000000
       0.1017903000000000,        56.21510000000000,        744.7876000000000,        25.77038000000000
       0.1018902000000000,        56.30023000000000,        744.4688000000000,        25.72040000000000
       0.1019903000000000,        56.30283000000000,        744.4591000000000,        25.71888000000000
       0.1020901000000000,        56.25832000000000,        744.6257000000001,        25.74499000000000
       0.1022096000000000,        56.30408000000000,        744.4544000000000,        25.71815000000000
       0.1023000000000000,        56.32507000000000,        744.3759000000000,        25.70586000000000
       0.1024843000000000,        56.31788000000000,        744.4027000000000,        25.71006000000000
       0.1025888000000000,        56.31503000000000,        744.4134000000000,        25.71174000000000
       0.1026896000000000,        56.32661000000000,        744.3701000000000,        25.70495000000000
       0.1028854000000000,        56.33846000000000,        744.3258000000000,        25.69802000000000
       0.1029920000000000,        56.35173000000000,        744.2762000000000,        25.69026000000000
       0.1032552000000000,        56.37021000000000,        744.2071999999999,        25.67946000000000
       0.1033909000000000,        56.38202000000000,        744.1630000000000,        25.67255000000000
       0.1034000000000000,        56.38251000000000,        744.1612000000000,        25.67226000000000
       0.1035899000000000,        56.38938000000000,        744.1356000000000,        25.66826000000000
       0.1037833000000000,        56.41021000000000,        744.0579000000000,        25.65610000000000
       0.1038891000000000,        56.41045000000000,        744.0570000000000,        25.65597000000000
       0.1040177000000000,        56.42166000000000,        744.0150000000000,        25.64941000000000
       0.1041887000000000,        56.43346000000000,        743.9710000000000,        25.64253000000000
       0.1042898000000000,        56.44051000000000,        743.9447000000000,        25.63842000000000
       0.1043921000000000,        56.45344000000000,        743.8964999999999,        25.63089000000000
       0.1045000000000000,        56.45483000000000,        743.8913000000000,        25.63007000000000
       0.1046820000000000,        56.47126000000000,        743.8300000000000,        25.62051000000000
       0.1048011000000000,        56.48263000000000,        743.7875000000000,        25.61388000000000
       0.1049990000000000,        56.50114000000000,        743.7188000000000,        25.60314000000000
       0.1051921000000000,        56.51253000000000,        743.6763000000000,        25.59651000000000
       0.1052936000000000,        56.53033000000000,        743.6100000000000,        25.58618000000000
       0.1054855000000000,        56.53223000000000,        743.6030000000000,        25.58508000000000
       0.1055901000000000,        56.54392000000000,        743.5595000000000,        25.57830000000000
       0.1056000000000000,        56.54466000000000,        743.5567000000000,        25.57787000000000
       0.1057858000000000,        56.55213000000000,        743.5290000000000,        25.57354000000000
       0.1058903000000000,        56.55141000000000,        743.5316000000000,        25.57396000000000
       0.1059999000000000,        56.56227000000000,        743.4912000000000,        25.56765000000000
       0.1061253000000000,        56.57905000000000,        743.4288000000000,        25.55792000000000
       0.1062904000000000,        56.59700000000000,        743.3620000000000,        25.54753000000000
       0.1064151000000000,        56.60846000000000,        743.3194999999999,        25.54090000000000
       0.1065932000000000,        56.61137000000000,        743.3086000000000,        25.53921000000000
       0.1067000000000000,        56.62072000000000,        743.2738000000001,        25.53379000000000
       0.1068899000000000,        56.65009000000000,        743.1648000000000,        25.51682000000000
       0.1069901000000000,        56.64970000000000,        743.1662000000000,        25.51704000000000
       0.1070915000000000,        56.63900000000000,        743.2059000000000,        25.52322000000000
       0.1072158000000000,        56.64075000000000,        743.1994000000000,        25.52220000000000
       0.1073865000000000,        56.68387000000000,        743.0392000000001,        25.49729000000000
       0.1075025000000000,        56.69315000000000,        743.0049000000000,        25.49195000000000
       0.1076977000000000,        56.70324000000000,        742.9675000000000,        25.48613000000000
       0.1078000000000000,        56.70688000000000,        742.9540000000000,        25.48403000000000
       0.1079898000000000,        56.70298000000000,        742.9684999999999,        25.48628000000000
       0.1081759000000000,        56.72949000000000,        742.8701000000000,        25.47099000000000
       0.1082872000000000,        56.74221000000000,        742.8229000000000,        25.46367000000000
       0.1083905000000000,        56.74605000000000,        742.8087000000000,        25.46147000000000
       0.1084939000000000,        56.74344000000000,        742.8184000000000,        25.46296000000000
       0.1086179000000000,        56.75055000000000,        742.7920000000000,        25.45887000000000
       0.1088156000000000,        56.76787000000000,        742.7279000000000,        25.44891000000000
       0.1089000000000000,        56.77294000000000,        742.7092000000000,        25.44600000000000
       0.1090888000000000,        56.78984000000000,        742.6464999999999,        25.43628000000000
       0.1091927000000000,        56.80502000000000,        742.5903000000000,        25.42756000000000
       0.1093046000000000,        56.80379000000000,        742.5949000000001,        25.42826000000000
       0.1094920000000000,        56.81682000000000,        742.5465000000000,        25.42076000000000
       0.1096794000000000,        56.83168000000000,        742.4915000000000,        25.41223000000000
       0.1098901000000000,        56.83882000000000,        742.4651000000000,        25.40813000000000
       0.1100000000000000,        56.84540000000000,        742.4407000000000,        25.40435000000000
